X Direction (m/s) | Y Direction (m/s) | Z Direction (m/s) | Heading (deg) | Time (sec) (XYZ in ecef coords)
              0.7             -0.81             -1.34           156.073      495530
              0.1             -0.11             -0.18           154.886      495531
                0              0.01              0.01           152.304      495532
             0.01             -0.01                 0            158.24      495533
                0             -0.02                 0           249.876      495534
            -0.01                 0              0.03           260.994      495535
                0                 0             -0.02           259.918      495536
            -0.02              0.02              0.04           243.814      495537
              0.1              -0.1             -0.13            181.44      495538
             0.37             -0.37             -0.49           153.963      495539
             1.83             -0.78             -1.34           132.474      495540
             4.64             -0.17             -1.05           107.274      495541
             6.24              1.25              0.51           88.8515      495542
             7.53              1.91              1.04           82.2709      495543
              8.7              2.31              1.48           80.8015      495544
             9.95              2.59              1.72           80.1826      495545
            10.88              2.85              1.86           80.2659      495546
            11.77               3.1              2.07           79.9956      495547
            12.62              3.36              2.29           79.6632      495548
            13.67              3.64              2.49           79.5779      495549
            14.72              3.95              2.71           79.4737      495550
            15.38              4.19              2.85            79.398      495551
            15.87              4.29              2.85           79.6205      495552
            16.42              4.44              2.89            79.738      495553
            16.97              4.59              2.93           79.7079      495554
            17.19               4.7              3.02           79.6741      495555
            17.39              4.76              3.07           79.6495      495556
            17.83              4.84              3.15           79.6239      495557
            18.33              4.93              3.15           79.7992      495558
            18.77              5.04              3.12           80.0198      495559
            19.17               5.2              3.26           79.9668      495560
            19.56              5.32              3.47           79.6613      495561
            19.97              5.41              3.58           79.5416      495562
            20.36              5.47              3.67           79.6146      495563
             20.7              5.59              3.77           79.5171      495564
            21.11              5.67              3.83           79.5291      495565
            21.55              5.76              3.74           79.6713      495566
            21.96              5.91              3.79           79.7424      495567
            22.32                 6              4.02           79.4774      495568
             22.8              6.06              4.07           79.6066      495569
             23.1              6.09              4.01           79.8175      495570
            23.22              6.09              3.86           80.0695      495571
            23.43              6.08              3.86           80.2399      495572
            23.17              6.03              3.95           80.0733      495573
            23.05              6.01              3.97           80.0633      495574
            23.25              6.01              3.86           80.2713      495575
            23.48              6.11              3.88           80.2026      495576
            24.06              6.05              3.59           80.9902      495577
            24.45              6.12              3.57           81.2123      495578
            24.86              6.15              3.43           81.5377      495579
            25.16              6.12              3.49           81.5567      495580
             25.5              6.05              3.44           81.7983      495581
            25.62              5.92              3.58           81.7538      495582
            25.79              5.78              3.65           81.9609      495583
             25.8              5.78              3.84           81.5094      495584
            25.89              5.77              3.89           81.6076      495585
            25.98               5.7              3.92           81.7563      495586
             26.1              5.58              3.94           81.9511      495587
            26.21              5.46              3.92           82.1059      495588
            26.32              5.49              3.92           82.2373      495589
            26.41              5.59              3.94           82.1331      495590
            26.55              5.64              3.93           82.1495      495591
            26.76              5.77              3.85           82.3155      495592
            27.01              5.87               3.7           82.5081      495593
            27.21              6.07              3.76           82.2646      495594
            27.46              6.27              3.72            82.322      495595
            27.76              6.46              3.75           82.1689      495596
            28.03              6.68              3.91           81.8498      495597
            28.33              6.87              4.02           81.6341      495598
            28.54                 7              4.13           81.4371      495599
            28.31              6.94              4.03           81.5117      495600
            28.14              6.57              3.54           82.2226      495601
             27.9              6.41              3.39            82.684      495602
            27.58              6.46               3.4           82.6292      495603
            27.33               6.5              3.37           82.4881      495604
            27.04               6.5              3.51           82.1681      495605
            26.79              6.42              3.52           82.1024      495606
            26.53              6.35              3.48           82.1084      495607
            26.28              6.27              3.45           82.2145      495608
            26.09              6.22              3.34           82.2571      495609
            26.09              6.17              3.25           82.2954      495610
            26.44              6.28              3.37           82.2681      495611
            26.86              6.34              3.46           82.1801      495612
            27.13              6.25               3.6           82.2634      495613
             27.4              6.25              3.87           81.8859      495614
            27.67              6.12                 4            81.828      495615
            27.93              6.01              4.05            81.933      495616
            28.14              5.78              4.06           82.1809      495617
            28.15              5.46              4.14           82.2868      495618
            28.14              5.23              4.27           82.4288      495619
            28.07               5.2               4.4           82.2897      495620
            27.98              5.27              4.64           82.0533      495621
            27.83              5.24              4.85           81.8362      495622
            27.98              5.08               4.7           82.0074      495623
            28.12              5.07              4.72           82.2104      495624
            28.32              5.19              4.76           82.1867      495625
            28.56              5.43              4.69           82.1129      495626
            28.88              5.69              4.71           82.0444      495627
            29.16              5.83              4.49           82.2028      495628
            28.54              5.88              4.23           82.3286      495629
            28.08              5.97              3.98           82.4185      495630
            28.28              6.06              3.65            82.746      495631
            28.63                 6              3.17           83.4371      495632
             28.9              5.88              2.71            84.251      495633
             28.9              5.71              2.27           84.9696      495634
            28.78               5.5               1.9           85.6128      495635
            28.67              5.31               1.5           86.2065      495636
            28.74              5.16              1.21           86.7216      495637
             28.8              5.08              1.11           87.0473      495638
            28.93              5.04              0.96           87.3449      495639
            29.01              4.88              0.66           87.7937      495640
            29.02              4.55               0.2           88.6325      495641
            29.02              4.21             -0.33           89.5598      495642
            29.02              3.85             -0.85           90.6533      495643
            29.09              3.44             -1.49           91.7825      495644
            29.03              2.94             -2.16           93.1769      495645
            29.04              2.85             -2.19           93.6376      495646
            28.99              2.84             -2.21           93.6472      495647
            28.99              2.86             -2.26           93.7327      495648
            29.03              2.86             -2.29           93.7591      495649
            29.09              2.74             -2.52           94.0651      495650
            29.04              2.43             -2.79           94.6452      495651
               29              2.17             -3.21           95.4058      495652
            29.01              1.94             -3.45           96.0305      495653
               29              1.73             -3.78           96.6558      495654
            28.92              1.52              -4.1           97.2779      495655
            28.94              1.31             -4.32           97.8195      495656
             28.9              1.19             -4.64           98.2541      495657
            28.86              1.06             -4.98           98.8615      495658
            28.85               0.8             -5.29           99.5107      495659
             28.8              0.52             -5.67           100.257      495660
            28.69              0.26             -6.02           101.019      495661
             28.6              0.04             -6.35           101.725      495662
            28.56             -0.15             -6.53           102.225      495663
            28.53             -0.31             -6.72           102.653      495664
            28.47             -0.54             -6.96           103.126      495665
            28.42             -0.73             -7.22           103.654      495666
            28.29             -0.94             -7.55           104.311      495667
             28.2             -1.18             -7.94            105.03      495668
             28.1             -1.47             -8.29            105.81      495669
            27.95             -1.72             -8.65           106.572      495670
            27.81             -1.95             -8.92           107.245      495671
            27.73             -2.12             -9.18           107.854      495672
            27.59             -2.41             -9.48           108.486      495673
            27.48             -2.54             -9.63           108.973      495674
            27.43             -2.65             -9.81           109.342      495675
            27.36             -2.82            -10.03           109.843      495676
            27.21             -3.01            -10.29           110.406      495677
            26.81              -3.2            -10.35           110.915      495678
             26.3             -3.41             -10.3           111.386      495679
            25.73             -3.58            -10.16           111.745      495680
            25.12             -3.67             -9.95           112.012      495681
            24.58             -3.75             -9.66           112.084      495682
             24.2             -3.79             -9.33           111.924      495683
            24.23             -3.85             -9.15           111.776      495684
            24.25             -3.95             -8.91           111.473      495685
            24.17              -4.1             -8.79           111.395      495686
            24.06             -4.19             -8.74           111.524      495687
            24.05             -4.32             -8.82           111.768      495688
            24.13             -4.46              -8.9           112.045      495689
             24.2             -4.59             -8.91           112.171      495690
            24.27             -4.58             -8.84            112.12      495691
            24.42             -4.42             -8.78           111.825      495692
            24.66             -4.31             -8.77           111.628      495693
            24.89             -4.19             -8.87           111.493      495694
            25.13             -4.09             -9.02           111.407      495695
            25.32             -4.02             -9.21           111.345      495696
            25.12             -3.95             -9.47           111.681      495697
            24.85              -3.8             -9.55           111.899      495698
            24.79             -3.67             -9.64           111.942      495699
            24.87              -3.5             -9.72           111.915      495700
            24.92             -3.27             -9.67           111.577      495701
            24.84             -3.07             -9.76           111.484      495702
            24.79             -2.98             -9.85           111.515      495703
            24.77             -2.93              -9.9           111.608      495704
            24.78             -2.86             -9.88           111.466      495705
            24.72             -2.88             -9.94           111.542      495706
            24.71             -2.85             -9.94           111.559      495707
            24.75             -2.78             -9.86           111.378      495708
            24.68             -2.82             -9.92           111.402      495709
            24.59             -2.81             -9.97           111.571      495710
             24.6             -2.75             -9.89           111.511      495711
            24.53             -2.89             -9.92           111.531      495712
            24.43             -3.04             -9.87           111.768      495713
            24.29             -3.07             -9.65           111.666      495714
            24.08             -3.19             -9.54           111.677      495715
            24.25             -3.36             -9.36            111.49      495716
            24.31             -3.56             -9.24           111.483      495717
            24.38             -3.74              -9.1           111.365      495718
            24.35             -3.91             -8.95           111.408      495719
             24.2             -4.02             -8.85           111.464      495720
            24.08             -4.11             -8.75           111.471      495721
            23.97             -4.23             -8.64           111.471      495722
            23.97             -4.31             -8.67           111.711      495723
            24.09             -4.34             -8.56           111.633      495724
            24.16             -4.41             -8.54           111.524      495725
            24.19             -4.42             -8.57           111.595      495726
            24.26             -4.46              -8.6           111.643      495727
            24.32              -4.5             -8.66           111.722      495728
            24.37             -4.52             -8.81           111.897      495729
            24.48             -4.52             -8.95            112.15      495730
            24.65             -4.45             -9.11           112.192      495731
            24.85             -4.46             -9.39            112.42      495732
            25.07             -4.42             -9.63           112.576      495733
             25.1             -4.21             -9.61           112.372      495734
            24.87             -3.95             -9.58           112.199      495735
            24.74              -3.7              -9.6           112.035      495736
            24.75             -3.59             -9.71           112.033      495737
            24.76             -3.56             -9.79           112.037      495738
            24.72             -3.51             -9.94           112.171      495739
            24.64             -3.47            -10.01           112.298      495740
            24.58              -3.4             -9.98           112.291      495741
            24.26              -3.4             -9.88           112.276      495742
            23.85             -3.35             -9.73           112.339      495743
            23.35             -3.26             -9.52           112.334      495744
             22.7             -3.22             -9.26           112.381      495745
            22.02             -3.16             -8.96           112.461      495746
            21.35             -3.07             -8.63           112.361      495747
            20.67             -3.02             -8.32           112.332      495748
            20.05             -2.96             -8.11           112.371      495749
             19.5             -2.91                -8           112.589      495750
            18.83             -2.92             -7.84           112.913      495751
            18.25             -2.84             -7.57           113.016      495752
            17.72             -2.77             -7.32           112.944      495753
            17.49             -2.69             -7.18           112.843      495754
            17.52             -2.57             -7.12            112.53      495755
             17.9             -2.58             -7.15           112.287      495756
            18.31             -2.64             -7.25           112.085      495757
            18.82             -2.71             -7.45           112.079      495758
            19.27             -2.75             -7.63            111.98      495759
            19.23             -2.75             -7.58           111.962      495760
            19.02             -2.79             -7.57           112.093      495761
            18.89             -2.86              -7.6           112.399      495762
            18.96             -2.93             -7.69           112.645      495763
            19.04             -2.99             -7.88            112.96      495764
            19.11             -2.95             -7.82           112.858      495765
            19.12             -2.76             -7.58           112.257      495766
            19.18             -2.51             -7.26           111.409      495767
            19.32             -2.25             -6.89           110.299      495768
            19.54             -2.08             -6.56           109.281      495769
            19.68             -1.95             -6.33           108.394      495770
            19.67             -1.94             -6.26           108.144      495771
            19.63             -1.95             -6.18           108.098      495772
            19.63             -2.04             -6.21           108.264      495773
            19.63             -2.16             -6.38           108.611      495774
             19.6             -2.25             -6.51           108.975      495775
            19.65             -2.23             -6.54           109.022      495776
            19.77             -2.07             -6.59           108.938      495777
             19.9             -1.88             -6.68           108.706      495778
            19.91             -1.86              -6.9           108.872      495779
            19.86             -1.93             -7.21           109.494      495780
            19.82             -2.06             -7.51           110.233      495781
            19.81             -2.18             -7.88           111.023      495782
            19.79             -2.41             -8.18           111.884      495783
            19.77             -2.62              -8.4           112.778      495784
            19.71             -2.72             -8.69           113.335      495785
             19.7             -2.74             -8.89           113.803      495786
            19.67             -2.91             -9.27           114.542      495787
            19.55             -3.15             -9.49           115.241      495788
             19.5             -3.13             -9.36           115.379      495789
            18.56             -2.61             -8.36           114.334      495790
            17.29             -1.97             -7.19           112.548      495791
            16.37              -1.4              -6.2           110.508      495792
            15.52             -1.01             -5.43            108.75      495793
             14.3             -0.67             -4.59           107.126      495794
            12.79             -0.23             -3.54           105.002      495795
            10.37              0.23             -2.28           102.139      495796
             7.55              0.38             -1.39           99.7285      495797
             5.38              0.32             -0.98           98.7286      495798
             3.95              0.22             -0.74           98.6891      495799
             2.75              0.17             -0.53           98.8123      495800
             2.84              0.15              -0.6           99.3025      495801
             2.88              0.15             -0.56           99.5237      495802
              3.2              0.18             -0.51           98.7058      495803
